/*--------------------------------*- C++ -*----------------------------------*\
| =========                 |                                                 |
| \\      /  F ield         | OpenFOAM: The Open Source CFD Toolbox           |
|  \\    /   O peration     | Version:  4.0                                   |
|   \\  /    A nd           | Web:      www.OpenFOAM.org                      |
|    \\/     M anipulation  |                                                 |
\*---------------------------------------------------------------------------*/
FoamFile
{
    version     2.0;
    format      ascii;
    class       volScalarField;
    location    "60/electrolyte";
    object      electrochemicalHeating;
}
// * * * * * * * * * * * * * * * * * * * * * * * * * * * * * * * * * * * * * //

dimensions      [0 0 0 0 0 0 0];

internalField   nonuniform List<scalar> 
4840
(
91193.34
91193.34
91193.34
91193.34
91193.34
90943.2
90943.2
90943.2
90943.2
90943.2
90589.01
90589.01
90589.01
90589.01
90589.01
90486.41
90486.41
90486.41
90486.41
90486.41
90663.79
90663.79
90663.79
90663.79
90663.79
90774.1
90774.1
90774.1
90774.1
90774.1
91201.45
91201.45
91201.45
91201.45
91201.45
91229.08
91229.08
91229.08
91229.08
91229.08
90872.82
90872.82
90872.82
90872.82
90872.82
91326.49
91326.49
91326.49
91326.49
91326.49
91358.47
91358.47
91358.47
91358.47
91358.47
91130.69
91130.69
91130.69
91130.69
91130.69
91466.27
91466.27
91466.27
91466.27
91466.27
91409.76
91409.76
91409.76
91409.76
91409.76
91040.91
91040.91
91040.91
91040.91
91040.91
91460.08
91460.08
91460.08
91460.08
91460.08
91420.3
91420.3
91420.3
91420.3
91420.3
91119.26
91119.26
91119.26
91119.26
91119.26
91469.8
91469.8
91469.8
91469.8
91469.8
91433.11
91433.11
91433.11
91433.11
91433.11
91068.58
91068.58
91068.58
91068.58
91068.58
91427.79
91427.79
91427.79
91427.79
91427.79
91427.45
91427.45
91427.45
91427.45
91427.45
91068.08
91068.08
91068.08
91068.08
91068.08
91428.59
91428.59
91428.59
91428.59
91428.59
91471.59
91471.59
91471.59
91471.59
91471.59
91121.14
91121.14
91121.14
91121.14
91121.14
91422.22
91422.22
91422.22
91422.22
91422.22
91460.83
91460.83
91460.83
91460.83
91460.83
91039.2
91039.2
91039.2
91039.2
91039.2
91409.81
91409.81
91409.81
91409.81
91409.81
91462.57
91462.57
91462.57
91462.57
91462.57
91126.86
91126.86
91126.86
91126.86
91126.86
91355.54
91355.54
91355.54
91355.54
91355.54
91324.97
91324.97
91324.97
91324.97
91324.97
90871.98
90871.98
90871.98
90871.98
90871.98
91229.52
91229.52
91229.52
91229.52
91229.52
91202.47
91202.47
91202.47
91202.47
91202.47
90774.7
90774.7
90774.7
90774.7
90774.7
90664.4
90664.4
90664.4
90664.4
90664.4
90479.9
90479.9
90479.9
90479.9
90479.9
90585.3
90585.3
90585.3
90585.3
90585.3
90938.47
90938.47
90938.47
90938.47
90938.47
91187
91187
91187
91187
91187
91594.35
91594.35
91594.35
91594.35
91594.35
92451.02
92451.02
92451.02
92451.02
92451.02
93259.4
93259.4
93259.4
93259.4
93259.4
93442.79
93442.79
93442.79
93442.79
93442.79
93280.21
93280.21
93280.21
93280.21
93280.21
93340.98
93340.98
93340.98
93340.98
93340.98
92194.76
92194.76
92194.76
92194.76
92194.76
92630.68
92630.68
92630.68
92630.68
92630.68
93650.58
93650.58
93650.58
93650.58
93650.58
93828.77
93828.77
93828.77
93828.77
93828.77
93856.32
93856.32
93856.32
93856.32
93856.32
93736.7
93736.7
93736.7
93736.7
93736.7
92618.53
92618.53
92618.53
92618.53
92618.53
92647.08
92647.08
92647.08
92647.08
92647.08
93724.19
93724.19
93724.19
93724.19
93724.19
93884.81
93884.81
93884.81
93884.81
93884.81
93888.72
93888.72
93888.72
93888.72
93888.72
93758.73
93758.73
93758.73
93758.73
93758.73
92667.79
92667.79
92667.79
92667.79
92667.79
92637.25
92637.25
92637.25
92637.25
92637.25
93728.46
93728.46
93728.46
93728.46
93728.46
93892.75
93892.75
93892.75
93892.75
93892.75
93891.64
93891.64
93891.64
93891.64
93891.64
93728.47
93728.47
93728.47
93728.47
93728.47
92637.58
92637.58
92637.58
92637.58
92637.58
92669.4
92669.4
92669.4
92669.4
92669.4
93755.99
93755.99
93755.99
93755.99
93755.99
93886.96
93886.96
93886.96
93886.96
93886.96
93885.75
93885.75
93885.75
93885.75
93885.75
93723.52
93723.52
93723.52
93723.52
93723.52
92645.91
92645.91
92645.91
92645.91
92645.91
92610.33
92610.33
92610.33
92610.33
92610.33
93727.13
93727.13
93727.13
93727.13
93727.13
93850.5
93850.5
93850.5
93850.5
93850.5
93826.22
93826.22
93826.22
93826.22
93826.22
93648.7
93648.7
93648.7
93648.7
93648.7
92627.7
92627.7
92627.7
92627.7
92627.7
92195.36
92195.36
92195.36
92195.36
92195.36
93340.01
93340.01
93340.01
93340.01
93340.01
93277.83
93277.83
93277.83
93277.83
93277.83
93438.89
93438.89
93438.89
93438.89
93438.89
93260.3
93260.3
93260.3
93260.3
93260.3
92451.81
92451.81
92451.81
92451.81
92451.81
91590.95
91590.95
91590.95
91590.95
91590.95
92001.54
92001.54
92001.54
92001.54
92001.54
92774.75
92774.75
92774.75
92774.75
92774.75
93515.8
93515.8
93515.8
93515.8
93515.8
93270.79
93270.79
93270.79
93270.79
93270.79
92819.98
92819.98
92819.98
92819.98
92819.98
93049.48
93049.48
93049.48
93049.48
93049.48
92191.97
92191.97
92191.97
92191.97
92191.97
92628.19
92628.19
92628.19
92628.19
92628.19
93456.86
93456.86
93456.86
93456.86
93456.86
93314.04
93314.04
93314.04
93314.04
93314.04
93263.79
93263.79
93263.79
93263.79
93263.79
93456.93
93456.93
93456.93
93456.93
93456.93
92535.99
92535.99
92535.99
92535.99
92535.99
92535.69
92535.69
92535.69
92535.69
92535.69
93441.18
93441.18
93441.18
93441.18
93441.18
93308.67
93308.67
93308.67
93308.67
93308.67
93285.94
93285.94
93285.94
93285.94
93285.94
93473.31
93473.31
93473.31
93473.31
93473.31
92564.11
92564.11
92564.11
92564.11
92564.11
92529.94
92529.94
92529.94
92529.94
92529.94
93438.48
93438.48
93438.48
93438.48
93438.48
93292.52
93292.52
93292.52
93292.52
93292.52
93292.07
93292.07
93292.07
93292.07
93292.07
93438.31
93438.31
93438.31
93438.31
93438.31
92529.81
92529.81
92529.81
92529.81
92529.81
92564.49
92564.49
92564.49
92564.49
92564.49
93474.72
93474.72
93474.72
93474.72
93474.72
93287.72
93287.72
93287.72
93287.72
93287.72
93309
93309
93309
93309
93309
93438.57
93438.57
93438.57
93438.57
93438.57
92532.75
92532.75
92532.75
92532.75
92532.75
92537.48
92537.48
92537.48
92537.48
92537.48
93454.86
93454.86
93454.86
93454.86
93454.86
93262.67
93262.67
93262.67
93262.67
93262.67
93313.05
93313.05
93313.05
93313.05
93313.05
93457.57
93457.57
93457.57
93457.57
93457.57
92626.71
92626.71
92626.71
92626.71
92626.71
92192.95
92192.95
92192.95
92192.95
92192.95
93051.44
93051.44
93051.44
93051.44
93051.44
92819.78
92819.78
92819.78
92819.78
92819.78
93270.21
93270.21
93270.21
93270.21
93270.21
93516.73
93516.73
93516.73
93516.73
93516.73
92775.34
92775.34
92775.34
92775.34
92775.34
92001.58
92001.58
92001.58
92001.58
92001.58
92048.28
92048.28
92048.28
92048.28
92048.28
92589.88
92589.88
92589.88
92589.88
92589.88
93338.39
93338.39
93338.39
93338.39
93338.39
92993.96
92993.96
92993.96
92993.96
92993.96
92392.23
92392.23
92392.23
92392.23
92392.23
92726.5
92726.5
92726.5
92726.5
92726.5
91877.62
91877.62
91877.62
91877.62
91877.62
92305.71
92305.71
92305.71
92305.71
92305.71
93101.44
93101.44
93101.44
93101.44
93101.44
92853.17
92853.17
92853.17
92853.17
92853.17
92780.46
92780.46
92780.46
92780.46
92780.46
93068.64
93068.64
93068.64
93068.64
93068.64
92151.79
92151.79
92151.79
92151.79
92151.79
92278.27
92278.27
92278.27
92278.27
92278.27
93097.33
93097.33
93097.33
93097.33
93097.33
92834.22
92834.22
92834.22
92834.22
92834.22
92811.09
92811.09
92811.09
92811.09
92811.09
93107.48
93107.48
93107.48
93107.48
93107.48
92231.28
92231.28
92231.28
92231.28
92231.28
92249.28
92249.28
92249.28
92249.28
92249.28
93093.59
93093.59
93093.59
93093.59
93093.59
92819.76
92819.76
92819.76
92819.76
92819.76
92819.82
92819.82
92819.82
92819.82
92819.82
93091.66
93091.66
93091.66
93091.66
93091.66
92246.99
92246.99
92246.99
92246.99
92246.99
92233.4
92233.4
92233.4
92233.4
92233.4
93113.75
93113.75
93113.75
93113.75
93113.75
92816.94
92816.94
92816.94
92816.94
92816.94
92834.73
92834.73
92834.73
92834.73
92834.73
93095.08
93095.08
93095.08
93095.08
93095.08
92276.14
92276.14
92276.14
92276.14
92276.14
92158.08
92158.08
92158.08
92158.08
92158.08
93073.04
93073.04
93073.04
93073.04
93073.04
92779.89
92779.89
92779.89
92779.89
92779.89
92853.44
92853.44
92853.44
92853.44
92853.44
93103.58
93103.58
93103.58
93103.58
93103.58
92306.14
92306.14
92306.14
92306.14
92306.14
91880.05
91880.05
91880.05
91880.05
91880.05
92731.48
92731.48
92731.48
92731.48
92731.48
92394.06
92394.06
92394.06
92394.06
92394.06
92995.87
92995.87
92995.87
92995.87
92995.87
93336.49
93336.49
93336.49
93336.49
93336.49
92587.88
92587.88
92587.88
92587.88
92587.88
92050.87
92050.87
92050.87
92050.87
92050.87
91751.82
91751.82
91751.82
91751.82
91751.82
92374.1
92374.1
92374.1
92374.1
92374.1
93042
93042
93042
93042
93042
92674.36
92674.36
92674.36
92674.36
92674.36
92067.39
92067.39
92067.39
92067.39
92067.39
92357.02
92357.02
92357.02
92357.02
92357.02
91655.46
91655.46
91655.46
91655.46
91655.46
92039.58
92039.58
92039.58
92039.58
92039.58
92739.85
92739.85
92739.85
92739.85
92739.85
92483.52
92483.52
92483.52
92483.52
92483.52
92409.95
92409.95
92409.95
92409.95
92409.95
92639.43
92639.43
92639.43
92639.43
92639.43
91904.39
91904.39
91904.39
91904.39
91904.39
92043.29
92043.29
92043.29
92043.29
92043.29
92721.54
92721.54
92721.54
92721.54
92721.54
92451.72
92451.72
92451.72
92451.72
92451.72
92431.66
92431.66
92431.66
92431.66
92431.66
92687.71
92687.71
92687.71
92687.71
92687.71
91956.12
91956.12
91956.12
91956.12
91956.12
91997.56
91997.56
91997.56
91997.56
91997.56
92698.11
92698.11
92698.11
92698.11
92698.11
92428.85
92428.85
92428.85
92428.85
92428.85
92428.69
92428.69
92428.69
92428.69
92428.69
92696.57
92696.57
92696.57
92696.57
92696.57
92000.2
92000.2
92000.2
92000.2
92000.2
91957.74
91957.74
91957.74
91957.74
91957.74
92688.84
92688.84
92688.84
92688.84
92688.84
92432.7
92432.7
92432.7
92432.7
92432.7
92450.54
92450.54
92450.54
92450.54
92450.54
92721.08
92721.08
92721.08
92721.08
92721.08
92040.41
92040.41
92040.41
92040.41
92040.41
91904.94
91904.94
91904.94
91904.94
91904.94
92639.94
92639.94
92639.94
92639.94
92639.94
92409.17
92409.17
92409.17
92409.17
92409.17
92484.5
92484.5
92484.5
92484.5
92484.5
92742.35
92742.35
92742.35
92742.35
92742.35
92041.03
92041.03
92041.03
92041.03
92041.03
91657.37
91657.37
91657.37
91657.37
91657.37
92358.89
92358.89
92358.89
92358.89
92358.89
92067.43
92067.43
92067.43
92067.43
92067.43
92679.06
92679.06
92679.06
92679.06
92679.06
93047.56
93047.56
93047.56
93047.56
93047.56
92379.54
92379.54
92379.54
92379.54
92379.54
91757.29
91757.29
91757.29
91757.29
91757.29
91536.45
91536.45
91536.45
91536.45
91536.45
92172.94
92172.94
92172.94
92172.94
92172.94
92723.62
92723.62
92723.62
92723.62
92723.62
92398.25
92398.25
92398.25
92398.25
92398.25
91797.69
91797.69
91797.69
91797.69
91797.69
92082.88
92082.88
92082.88
92082.88
92082.88
91391.96
91391.96
91391.96
91391.96
91391.96
91814.35
91814.35
91814.35
91814.35
91814.35
92433.06
92433.06
92433.06
92433.06
92433.06
92185.98
92185.98
92185.98
92185.98
92185.98
92086.87
92086.87
92086.87
92086.87
92086.87
92302.88
92302.88
92302.88
92302.88
92302.88
91632.67
91632.67
91632.67
91632.67
91632.67
91792
91792
91792
91792
91792
92399.17
92399.17
92399.17
92399.17
92399.17
92129.8
92129.8
92129.8
92129.8
92129.8
92106.35
92106.35
92106.35
92106.35
92106.35
92352.26
92352.26
92352.26
92352.26
92352.26
91683.74
91683.74
91683.74
91683.74
91683.74
91739.89
91739.89
91739.89
91739.89
91739.89
92377.52
92377.52
92377.52
92377.52
92377.52
92112.41
92112.41
92112.41
92112.41
92112.41
92112.08
92112.08
92112.08
92112.08
92112.08
92376.24
92376.24
92376.24
92376.24
92376.24
91740.16
91740.16
91740.16
91740.16
91740.16
91686.26
91686.26
91686.26
91686.26
91686.26
92354.49
92354.49
92354.49
92354.49
92354.49
92109.01
92109.01
92109.01
92109.01
92109.01
92130.51
92130.51
92130.51
92130.51
92130.51
92392.25
92392.25
92392.25
92392.25
92392.25
91793.63
91793.63
91793.63
91793.63
91793.63
91638.64
91638.64
91638.64
91638.64
91638.64
92309.08
92309.08
92309.08
92309.08
92309.08
92091.13
92091.13
92091.13
92091.13
92091.13
92177.72
92177.72
92177.72
92177.72
92177.72
92426.61
92426.61
92426.61
92426.61
92426.61
91808.11
91808.11
91808.11
91808.11
91808.11
91385.34
91385.34
91385.34
91385.34
91385.34
92074.17
92074.17
92074.17
92074.17
92074.17
91790.46
91790.46
91790.46
91790.46
91790.46
92378.12
92378.12
92378.12
92378.12
92378.12
92704.06
92704.06
92704.06
92704.06
92704.06
92153.34
92153.34
92153.34
92153.34
92153.34
91517.07
91517.07
91517.07
91517.07
91517.07
91300.21
91300.21
91300.21
91300.21
91300.21
91952.54
91952.54
91952.54
91952.54
91952.54
92402.73
92402.73
92402.73
92402.73
92402.73
92122.28
92122.28
92122.28
92122.28
92122.28
91541.72
91541.72
91541.72
91541.72
91541.72
91791.6
91791.6
91791.6
91791.6
91791.6
91141.25
91141.25
91141.25
91141.25
91141.25
91596.73
91596.73
91596.73
91596.73
91596.73
92125.05
92125.05
92125.05
92125.05
92125.05
91900.52
91900.52
91900.52
91900.52
91900.52
91800.13
91800.13
91800.13
91800.13
91800.13
92008.79
92008.79
92008.79
92008.79
92008.79
91382.17
91382.17
91382.17
91382.17
91382.17
91539.54
91539.54
91539.54
91539.54
91539.54
92099.81
92099.81
92099.81
92099.81
92099.81
91855.2
91855.2
91855.2
91855.2
91855.2
91843.15
91843.15
91843.15
91843.15
91843.15
92081.93
92081.93
92081.93
92081.93
92081.93
91460.65
91460.65
91460.65
91460.65
91460.65
91500.65
91500.65
91500.65
91500.65
91500.65
92091.77
92091.77
92091.77
92091.77
92091.77
91850.51
91850.51
91850.51
91850.51
91850.51
91849.8
91849.8
91849.8
91849.8
91849.8
92089.74
92089.74
92089.74
92089.74
92089.74
91500.34
91500.34
91500.34
91500.34
91500.34
91460.4
91460.4
91460.4
91460.4
91460.4
92069.98
92069.98
92069.98
92069.98
92069.98
91831.31
91831.31
91831.31
91831.31
91831.31
91854.82
91854.82
91854.82
91854.82
91854.82
92096.75
92096.75
92096.75
92096.75
92096.75
91537.55
91537.55
91537.55
91537.55
91537.55
91380.07
91380.07
91380.07
91380.07
91380.07
92006.96
92006.96
92006.96
92006.96
92006.96
91796.75
91796.75
91796.75
91796.75
91796.75
91898.02
91898.02
91898.02
91898.02
91898.02
92124.56
92124.56
92124.56
92124.56
92124.56
91597.1
91597.1
91597.1
91597.1
91597.1
91140.87
91140.87
91140.87
91140.87
91140.87
91788.73
91788.73
91788.73
91788.73
91788.73
91538.99
91538.99
91538.99
91538.99
91538.99
92119.89
92119.89
92119.89
92119.89
92119.89
92402.24
92402.24
92402.24
92402.24
92402.24
91952.02
91952.02
91952.02
91952.02
91952.02
91296.74
91296.74
91296.74
91296.74
91296.74
91094.21
91094.21
91094.21
91094.21
91094.21
91778.34
91778.34
91778.34
91778.34
91778.34
92141.92
92141.92
92141.92
92141.92
92141.92
91903.68
91903.68
91903.68
91903.68
91903.68
91365.04
91365.04
91365.04
91365.04
91365.04
91567.46
91567.46
91567.46
91567.46
91567.46
90953.85
90953.85
90953.85
90953.85
90953.85
91424.95
91424.95
91424.95
91424.95
91424.95
91886.37
91886.37
91886.37
91886.37
91886.37
91683.37
91683.37
91683.37
91683.37
91683.37
91573.87
91573.87
91573.87
91573.87
91573.87
91790.76
91790.76
91790.76
91790.76
91790.76
91167.04
91167.04
91167.04
91167.04
91167.04
91303
91303
91303
91303
91303
91846.04
91846.04
91846.04
91846.04
91846.04
91621.63
91621.63
91621.63
91621.63
91621.63
91597.89
91597.89
91597.89
91597.89
91597.89
91842.24
91842.24
91842.24
91842.24
91842.24
91247.65
91247.65
91247.65
91247.65
91247.65
91250.97
91250.97
91250.97
91250.97
91250.97
91810.99
91810.99
91810.99
91810.99
91810.99
91605.01
91605.01
91605.01
91605.01
91605.01
91604.09
91604.09
91604.09
91604.09
91604.09
91809.77
91809.77
91809.77
91809.77
91809.77
91251.19
91251.19
91251.19
91251.19
91251.19
91247.74
91247.74
91247.74
91247.74
91247.74
91843.54
91843.54
91843.54
91843.54
91843.54
91598.42
91598.42
91598.42
91598.42
91598.42
91621.38
91621.38
91621.38
91621.38
91621.38
91844.06
91844.06
91844.06
91844.06
91844.06
91301.72
91301.72
91301.72
91301.72
91301.72
91166.17
91166.17
91166.17
91166.17
91166.17
91790.9
91790.9
91790.9
91790.9
91790.9
91573.18
91573.18
91573.18
91573.18
91573.18
91683.53
91683.53
91683.53
91683.53
91683.53
91888.53
91888.53
91888.53
91888.53
91888.53
91426.99
91426.99
91426.99
91426.99
91426.99
90955.43
90955.43
90955.43
90955.43
90955.43
91566.84
91566.84
91566.84
91566.84
91566.84
91364.08
91364.08
91364.08
91364.08
91364.08
91903.26
91903.26
91903.26
91903.26
91903.26
92142.03
92142.03
92142.03
92142.03
92142.03
91778.41
91778.41
91778.41
91778.41
91778.41
91094.21
91094.21
91094.21
91094.21
91094.21
90900.39
90900.39
90900.39
90900.39
90900.39
91610.02
91610.02
91610.02
91610.02
91610.02
91883.95
91883.95
91883.95
91883.95
91883.95
91673.88
91673.88
91673.88
91673.88
91673.88
91184.33
91184.33
91184.33
91184.33
91184.33
91347.6
91347.6
91347.6
91347.6
91347.6
90766.01
90766.01
90766.01
90766.01
90766.01
91227.69
91227.69
91227.69
91227.69
91227.69
91649.87
91649.87
91649.87
91649.87
91649.87
91460.85
91460.85
91460.85
91460.85
91460.85
91357.33
91357.33
91357.33
91357.33
91357.33
91580.76
91580.76
91580.76
91580.76
91580.76
90987.08
90987.08
90987.08
90987.08
90987.08
91091.93
91091.93
91091.93
91091.93
91091.93
91621.98
91621.98
91621.98
91621.98
91621.98
91417.65
91417.65
91417.65
91417.65
91417.65
91399.31
91399.31
91399.31
91399.31
91399.31
91651.59
91651.59
91651.59
91651.59
91651.59
91080.12
91080.12
91080.12
91080.12
91080.12
91056.65
91056.65
91056.65
91056.65
91056.65
91604.32
91604.32
91604.32
91604.32
91604.32
91419.69
91419.69
91419.69
91419.69
91419.69
91419.08
91419.08
91419.08
91419.08
91419.08
91603.69
91603.69
91603.69
91603.69
91603.69
91057.79
91057.79
91057.79
91057.79
91057.79
91081.29
91081.29
91081.29
91081.29
91081.29
91666.01
91666.01
91666.01
91666.01
91666.01
91412.33
91412.33
91412.33
91412.33
91412.33
91417.44
91417.44
91417.44
91417.44
91417.44
91621.2
91621.2
91621.2
91621.2
91621.2
91090.95
91090.95
91090.95
91090.95
91090.95
90987.8
90987.8
90987.8
90987.8
90987.8
91582.76
91582.76
91582.76
91582.76
91582.76
91358.99
91358.99
91358.99
91358.99
91358.99
91463.51
91463.51
91463.51
91463.51
91463.51
91654.16
91654.16
91654.16
91654.16
91654.16
91230.07
91230.07
91230.07
91230.07
91230.07
90770.79
90770.79
90770.79
90770.79
90770.79
91349.63
91349.63
91349.63
91349.63
91349.63
91185.05
91185.05
91185.05
91185.05
91185.05
91675.41
91675.41
91675.41
91675.41
91675.41
91884.65
91884.65
91884.65
91884.65
91884.65
91610.84
91610.84
91610.84
91610.84
91610.84
90904.02
90904.02
90904.02
90904.02
90904.02
90719.6
90719.6
90719.6
90719.6
90719.6
91439.03
91439.03
91439.03
91439.03
91439.03
91661.5
91661.5
91661.5
91661.5
91661.5
91478.79
91478.79
91478.79
91478.79
91478.79
91056.19
91056.19
91056.19
91056.19
91056.19
91180.08
91180.08
91180.08
91180.08
91180.08
90631.48
90631.48
90631.48
90631.48
90631.48
91077.37
91077.37
91077.37
91077.37
91077.37
91479.39
91479.39
91479.39
91479.39
91479.39
91290.22
91290.22
91290.22
91290.22
91290.22
91199.98
91199.98
91199.98
91199.98
91199.98
91425.74
91425.74
91425.74
91425.74
91425.74
90847.24
90847.24
90847.24
90847.24
90847.24
90923.74
90923.74
90923.74
90923.74
90923.74
91432.24
91432.24
91432.24
91432.24
91432.24
91241.55
91241.55
91241.55
91241.55
91241.55
91231.5
91231.5
91231.5
91231.5
91231.5
91482.92
91482.92
91482.92
91482.92
91482.92
90901.06
90901.06
90901.06
90901.06
90901.06
90874.73
90874.73
90874.73
90874.73
90874.73
91413.53
91413.53
91413.53
91413.53
91413.53
91236.18
91236.18
91236.18
91236.18
91236.18
91235.9
91235.9
91235.9
91235.9
91235.9
91412.71
91412.71
91412.71
91412.71
91412.71
90874.82
90874.82
90874.82
90874.82
90874.82
90900.12
90900.12
90900.12
90900.12
90900.12
91483.42
91483.42
91483.42
91483.42
91483.42
91230.61
91230.61
91230.61
91230.61
91230.61
91240.19
91240.19
91240.19
91240.19
91240.19
91435.31
91435.31
91435.31
91435.31
91435.31
90917.77
90917.77
90917.77
90917.77
90917.77
90840.58
90840.58
90840.58
90840.58
90840.58
91420.14
91420.14
91420.14
91420.14
91420.14
91193.88
91193.88
91193.88
91193.88
91193.88
91298.63
91298.63
