/*--------------------------------*- C++ -*----------------------------------*\
| =========                 |                                                 |
| \\      /  F ield         | OpenFOAM: The Open Source CFD Toolbox           |
|  \\    /   O peration     | Version:  4.0                                   |
|   \\  /    A nd           | Web:      www.OpenFOAM.org                      |
|    \\/     M anipulation  |                                                 |
\*---------------------------------------------------------------------------*/
FoamFile
{
    version     2.0;
    format      ascii;
    class       volScalarField;
    location    "60/electrolyte";
    object      iLC;
}
// * * * * * * * * * * * * * * * * * * * * * * * * * * * * * * * * * * * * * //

dimensions      [0 -2 0 0 0 1 0];

internalField   nonuniform List<scalar> 
4840
(
41060.27
41060.27
41060.27
41060.27
41060.27
41232.36
41232.36
41232.36
41232.36
41232.36
41401.65
41401.65
41401.65
41401.65
41401.65
41433.05
41433.05
41433.05
41433.05
41433.05
41432.08
41432.08
41432.08
41432.08
41432.08
41406.47
41406.47
41406.47
41406.47
41406.47
41278.77
41278.77
41278.77
41278.77
41278.77
41284.01
41284.01
41284.01
41284.01
41284.01
41408.24
41408.24
41408.24
41408.24
41408.24
41432.41
41432.41
41432.41
41432.41
41432.41
41432.45
41432.45
41432.45
41432.45
41432.45
41407.75
41407.75
41407.75
41407.75
41407.75
41282.28
41282.28
41282.28
41282.28
41282.28
41283.32
41283.32
41283.32
41283.32
41283.32
41408.15
41408.15
41408.15
41408.15
41408.15
41432.7
41432.7
41432.7
41432.7
41432.7
41432.65
41432.65
41432.65
41432.65
41432.65
41408.12
41408.12
41408.12
41408.12
41408.12
41283.1
41283.1
41283.1
41283.1
41283.1
41283.15
41283.15
41283.15
41283.15
41283.15
41408.13
41408.13
41408.13
41408.13
41408.13
41432.61
41432.61
41432.61
41432.61
41432.61
41432.62
41432.62
41432.62
41432.62
41432.62
41408.13
41408.13
41408.13
41408.13
41408.13
41283.12
41283.12
41283.12
41283.12
41283.12
41282.91
41282.91
41282.91
41282.91
41282.91
41407.98
41407.98
41407.98
41407.98
41407.98
41432.52
41432.52
41432.52
41432.52
41432.52
41432.59
41432.59
41432.59
41432.59
41432.59
41408.1
41408.1
41408.1
41408.1
41408.1
41282.86
41282.86
41282.86
41282.86
41282.86
41281.71
41281.71
41281.71
41281.71
41281.71
41407.39
41407.39
41407.39
41407.39
41407.39
41432.17
41432.17
41432.17
41432.17
41432.17
41432.5
41432.5
41432.5
41432.5
41432.5
41408.41
41408.41
41408.41
41408.41
41408.41
41284.29
41284.29
41284.29
41284.29
41284.29
41279.05
41279.05
41279.05
41279.05
41279.05
41406.67
41406.67
41406.67
41406.67
41406.67
41432.53
41432.53
41432.53
41432.53
41432.53
41433.83
41433.83
41433.83
41433.83
41433.83
41402.65
41402.65
41402.65
41402.65
41402.65
41234.23
41234.23
41234.23
41234.23
41234.23
41063.03
41063.03
41063.03
41063.03
41063.03
41015.03
41015.03
41015.03
41015.03
41015.03
41178.73
41178.73
41178.73
41178.73
41178.73
41362.93
41362.93
41362.93
41362.93
41362.93
41404.52
41404.52
41404.52
41404.52
41404.52
41403.81
41403.81
41403.81
41403.81
41403.81
41369.74
41369.74
41369.74
41369.74
41369.74
41236.23
41236.23
41236.23
41236.23
41236.23
41241.77
41241.77
41241.77
41241.77
41241.77
41372.29
41372.29
41372.29
41372.29
41372.29
41404.49
41404.49
41404.49
41404.49
41404.49
41404.16
41404.16
41404.16
41404.16
41404.16
41371.03
41371.03
41371.03
41371.03
41371.03
41239.1
41239.1
41239.1
41239.1
41239.1
41240.23
41240.23
41240.23
41240.23
41240.23
41371.54
41371.54
41371.54
41371.54
41371.54
41404.2
41404.2
41404.2
41404.2
41404.2
41403.88
41403.88
41403.88
41403.88
41403.88
41371.03
41371.03
41371.03
41371.03
41371.03
41239.32
41239.32
41239.32
41239.32
41239.32
41239.46
41239.46
41239.46
41239.46
41239.46
41371.07
41371.07
41371.07
41371.07
41371.07
41403.85
41403.85
41403.85
41403.85
41403.85
41403.86
41403.86
41403.86
41403.86
41403.86
41371.08
41371.08
41371.08
41371.08
41371.08
41239.47
41239.47
41239.47
41239.47
41239.47
41239.3
41239.3
41239.3
41239.3
41239.3
41371.24
41371.24
41371.24
41371.24
41371.24
41404.11
41404.11
41404.11
41404.11
41404.11
41404.19
41404.19
41404.19
41404.19
41404.19
41371.51
41371.51
41371.51
41371.51
41371.51
41240.1
41240.1
41240.1
41240.1
41240.1
41239.01
41239.01
41239.01
41239.01
41239.01
41371
41371
41371
41371
41371
41404.09
41404.09
41404.09
41404.09
41404.09
41404.52
41404.52
41404.52
41404.52
41404.52
41372.36
41372.36
41372.36
41372.36
41372.36
41241.9
41241.9
41241.9
41241.9
41241.9
41236.35
41236.35
41236.35
41236.35
41236.35
41369.83
41369.83
41369.83
41369.83
41369.83
41403.96
41403.96
41403.96
41403.96
41403.96
41404.78
41404.78
41404.78
41404.78
41404.78
41363.27
41363.27
41363.27
41363.27
41363.27
41179.53
41179.53
41179.53
41179.53
41179.53
41016.39
41016.39
41016.39
41016.39
41016.39
40942.07
40942.07
40942.07
40942.07
40942.07
41101.7
41101.7
41101.7
41101.7
41101.7
41318.04
41318.04
41318.04
41318.04
41318.04
41374.33
41374.33
41374.33
41374.33
41374.33
41374.64
41374.64
41374.64
41374.64
41374.64
41331.46
41331.46
41331.46
41331.46
41331.46
41185.56
41185.56
41185.56
41185.56
41185.56
41191.6
41191.6
41191.6
41191.6
41191.6
41334.91
41334.91
41334.91
41334.91
41334.91
41376.13
41376.13
41376.13
41376.13
41376.13
41375.62
41375.62
41375.62
41375.62
41375.62
41333.32
41333.32
41333.32
41333.32
41333.32
41189.04
41189.04
41189.04
41189.04
41189.04
41190.25
41190.25
41190.25
41190.25
41190.25
41334.21
41334.21
41334.21
41334.21
41334.21
41376.02
41376.02
41376.02
41376.02
41376.02
41375.87
41375.87
41375.87
41375.87
41375.87
41333.92
41333.92
41333.92
41333.92
41333.92
41189.67
41189.67
41189.67
41189.67
41189.67
41189.84
41189.84
41189.84
41189.84
41189.84
41334
41334
41334
41334
41334
41375.97
41375.97
41375.97
41375.97
41375.97
41375.98
41375.98
41375.98
41375.98
41375.98
41334.02
41334.02
41334.02
41334.02
41334.02
41189.85
41189.85
41189.85
41189.85
41189.85
41189.64
41189.64
41189.64
41189.64
41189.64
41333.94
41333.94
41333.94
41333.94
41333.94
41375.9
41375.9
41375.9
41375.9
41375.9
41376.02
41376.02
41376.02
41376.02
41376.02
41334.2
41334.2
41334.2
41334.2
41334.2
41190.18
41190.18
41190.18
41190.18
41190.18
41188.92
41188.92
41188.92
41188.92
41188.92
41333.24
41333.24
41333.24
41333.24
41333.24
41375.57
41375.57
41375.57
41375.57
41375.57
41376.15
41376.15
41376.15
41376.15
41376.15
41334.98
41334.98
41334.98
41334.98
41334.98
41191.71
41191.71
41191.71
41191.71
41191.71
41185.63
41185.63
41185.63
41185.63
41185.63
41331.51
41331.51
41331.51
41331.51
41331.51
41374.74
41374.74
41374.74
41374.74
41374.74
41374.52
41374.52
41374.52
41374.52
41374.52
41318.38
41318.38
41318.38
41318.38
41318.38
41102.42
41102.42
41102.42
41102.42
41102.42
40943.09
40943.09
40943.09
40943.09
40943.09
40858.03
40858.03
40858.03
40858.03
40858.03
41014.72
41014.72
41014.72
41014.72
41014.72
41270.48
41270.48
41270.48
41270.48
41270.48
41344.58
41344.58
41344.58
41344.58
41344.58
41346.92
41346.92
41346.92
41346.92
41346.92
41294.17
41294.17
41294.17
41294.17
41294.17
41137.37
41137.37
41137.37
41137.37
41137.37
41140.66
41140.66
41140.66
41140.66
41140.66
41299.03
41299.03
41299.03
41299.03
41299.03
41349.49
41349.49
41349.49
41349.49
41349.49
41348.74
41348.74
41348.74
41348.74
41348.74
41296.69
41296.69
41296.69
41296.69
41296.69
41139.54
41139.54
41139.54
41139.54
41139.54
41140.04
41140.04
41140.04
41140.04
41140.04
41297.44
41297.44
41297.44
41297.44
41297.44
41348.86
41348.86
41348.86
41348.86
41348.86
41348.7
41348.7
41348.7
41348.7
41348.7
41296.94
41296.94
41296.94
41296.94
41296.94
41139.39
41139.39
41139.39
41139.39
41139.39
41139.46
41139.46
41139.46
41139.46
41139.46
41296.87
41296.87
41296.87
41296.87
41296.87
41348.5
41348.5
41348.5
41348.5
41348.5
41348.51
41348.51
41348.51
41348.51
41348.51
41296.9
41296.9
41296.9
41296.9
41296.9
41139.47
41139.47
41139.47
41139.47
41139.47
41139.33
41139.33
41139.33
41139.33
41139.33
41296.65
41296.65
41296.65
41296.65
41296.65
41348.44
41348.44
41348.44
41348.44
41348.44
41348.85
41348.85
41348.85
41348.85
41348.85
41297.45
41297.45
41297.45
41297.45
41297.45
41139.99
41139.99
41139.99
41139.99
41139.99
41139.32
41139.32
41139.32
41139.32
41139.32
41296.5
41296.5
41296.5
41296.5
41296.5
41348.69
41348.69
41348.69
41348.69
41348.69
41349.5
41349.5
41349.5
41349.5
41349.5
41299.09
41299.09
41299.09
41299.09
41299.09
41140.74
41140.74
41140.74
41140.74
41140.74
41137.41
41137.41
41137.41
41137.41
41137.41
41294.2
41294.2
41294.2
41294.2
41294.2
41346.98
41346.98
41346.98
41346.98
41346.98
41344.74
41344.74
41344.74
41344.74
41344.74
41270.89
41270.89
41270.89
41270.89
41270.89
41015.46
41015.46
41015.46
41015.46
41015.46
40858.82
40858.82
40858.82
40858.82
40858.82
40779.66
40779.66
40779.66
40779.66
40779.66
40942.49
40942.49
40942.49
40942.49
40942.49
41227.5
41227.5
41227.5
41227.5
41227.5
41316.77
41316.77
41316.77
41316.77
41316.77
41321.43
41321.43
41321.43
41321.43
41321.43
41262.23
41262.23
41262.23
41262.23
41262.23
41094.98
41094.98
41094.98
41094.98
41094.98
41097.28
41097.28
41097.28
41097.28
41097.28
41267.49
41267.49
41267.49
41267.49
41267.49
41325.05
41325.05
41325.05
41325.05
41325.05
41324.19
41324.19
41324.19
41324.19
41324.19
41265.02
41265.02
41265.02
41265.02
41265.02
41096.72
41096.72
41096.72
41096.72
41096.72
41097.1
41097.1
41097.1
41097.1
41097.1
41266.1
41266.1
41266.1
41266.1
41266.1
41324.63
41324.63
41324.63
41324.63
41324.63
41324.47
41324.47
41324.47
41324.47
41324.47
41265.69
41265.69
41265.69
41265.69
41265.69
41097.24
41097.24
41097.24
41097.24
41097.24
41097.39
41097.39
41097.39
41097.39
41097.39
41265.9
41265.9
41265.9
41265.9
41265.9
41324.58
41324.58
41324.58
41324.58
41324.58
41324.6
41324.6
41324.6
41324.6
41324.6
41265.94
41265.94
41265.94
41265.94
41265.94
41097.43
41097.43
41097.43
41097.43
41097.43
41097.31
41097.31
41097.31
41097.31
41097.31
41265.69
41265.69
41265.69
41265.69
41265.69
41324.5
41324.5
41324.5
41324.5
41324.5
41324.73
41324.73
41324.73
41324.73
41324.73
41266.14
41266.14
41266.14
41266.14
41266.14
41097.4
41097.4
41097.4
41097.4
41097.4
41096.96
41096.96
41096.96
41096.96
41096.96
41265.17
41265.17
41265.17
41265.17
41265.17
41324.38
41324.38
41324.38
41324.38
41324.38
41324.99
41324.99
41324.99
41324.99
41324.99
41267.44
41267.44
41267.44
41267.44
41267.44
41097.21
41097.21
41097.21
41097.21
41097.21
41094.86
41094.86
41094.86
41094.86
41094.86
41262.1
41262.1
41262.1
41262.1
41262.1
41321.13
41321.13
41321.13
41321.13
41321.13
41316.32
41316.32
41316.32
41316.32
41316.32
41227.14
41227.14
41227.14
41227.14
41227.14
40942.18
40942.18
40942.18
40942.18
40942.18
40779.34
40779.34
40779.34
40779.34
40779.34
40707.78
40707.78
40707.78
40707.78
40707.78
40879.29
40879.29
40879.29
40879.29
40879.29
41187.61
41187.61
41187.61
41187.61
41187.61
41290.4
41290.4
41290.4
41290.4
41290.4
41298.31
41298.31
41298.31
41298.31
41298.31
41234.92
41234.92
41234.92
41234.92
41234.92
41058.91
41058.91
41058.91
41058.91
41058.91
41060.73
41060.73
41060.73
41060.73
41060.73
41239.75
41239.75
41239.75
41239.75
41239.75
41303.11
41303.11
41303.11
41303.11
41303.11
41302.66
41302.66
41302.66
41302.66
41302.66
41238.21
41238.21
41238.21
41238.21
41238.21
41060.98
41060.98
41060.98
41060.98
41060.98
41061.19
41061.19
41061.19
41061.19
41061.19
41238.7
41238.7
41238.7
41238.7
41238.7
41302.9
41302.9
41302.9
41302.9
41302.9
41302.8
41302.8
41302.8
41302.8
41302.8
41238.64
41238.64
41238.64
41238.64
41238.64
41061.42
41061.42
41061.42
41061.42
41061.42
41061.46
41061.46
41061.46
41061.46
41061.46
41238.73
41238.73
41238.73
41238.73
41238.73
41302.83
41302.83
41302.83
41302.83
41302.83
41302.86
41302.86
41302.86
41302.86
41302.86
41238.78
41238.78
41238.78
41238.78
41238.78
41061.49
41061.49
41061.49
41061.49
41061.49
41061.31
41061.31
41061.31
41061.31
41061.31
41238.5
41238.5
41238.5
41238.5
41238.5
41302.7
41302.7
41302.7
41302.7
41302.7
41302.85
41302.85
41302.85
41302.85
41302.85
41238.76
41238.76
41238.76
41238.76
41238.76
41061.05
41061.05
41061.05
41061.05
41061.05
41060.75
41060.75
41060.75
41060.75
41060.75
41237.98
41237.98
41237.98
41237.98
41237.98
41302.49
41302.49
41302.49
41302.49
41302.49
41303.21
41303.21
41303.21
41303.21
41303.21
41239.91
41239.91
41239.91
41239.91
41239.91
41060.92
41060.92
41060.92
41060.92
41060.92
41059.05
41059.05
41059.05
41059.05
41059.05
41235.03
41235.03
41235.03
41235.03
41235.03
41298.61
41298.61
41298.61
41298.61
41298.61
41290.95
41290.95
41290.95
41290.95
41290.95
41188.33
41188.33
41188.33
41188.33
41188.33
40880.3
40880.3
40880.3
40880.3
40880.3
40708.88
40708.88
40708.88
40708.88
40708.88
40645.29
40645.29
40645.29
40645.29
40645.29
40826.47
40826.47
40826.47
40826.47
40826.47
41154.61
41154.61
41154.61
41154.61
41154.61
41267.69
41267.69
41267.69
41267.69
41267.69
41278.34
41278.34
41278.34
41278.34
41278.34
41211.94
41211.94
41211.94
41211.94
41211.94
41029
41029
41029
41029
41029
41030.55
41030.55
41030.55
41030.55
41030.55
41216.44
41216.44
41216.44
41216.44
41216.44
41283.98
41283.98
41283.98
41283.98
41283.98
41283.44
41283.44
41283.44
41283.44
41283.44
41215.09
41215.09
41215.09
41215.09
41215.09
41030.73
41030.73
41030.73
41030.73
41030.73
41030.81
41030.81
41030.81
41030.81
41030.81
41215.26
41215.26
41215.26
41215.26
41215.26
41283.36
41283.36
41283.36
41283.36
41283.36
41283.14
41283.14
41283.14
41283.14
41283.14
41215.1
41215.1
41215.1
41215.1
41215.1
41030.67
41030.67
41030.67
41030.67
41030.67
41030.63
41030.63
41030.63
41030.63
41030.63
41214.89
41214.89
41214.89
41214.89
41214.89
41283.02
41283.02
41283.02
41283.02
41283.02
41283.05
41283.05
41283.05
41283.05
41283.05
41214.95
41214.95
41214.95
41214.95
41214.95
41030.66
41030.66
41030.66
41030.66
41030.66
41030.64
41030.64
41030.64
41030.64
41030.64
41215.24
41215.24
41215.24
41215.24
41215.24
41283.31
41283.31
41283.31
41283.31
41283.31
41283.39
41283.39
41283.39
41283.39
41283.39
41215.33
41215.33
41215.33
41215.33
41215.33
41030.82
41030.82
41030.82
41030.82
41030.82
41030.74
41030.74
41030.74
41030.74
41030.74
41215.06
41215.06
41215.06
41215.06
41215.06
41283.4
41283.4
41283.4
41283.4
41283.4
41284.03
41284.03
41284.03
41284.03
41284.03
41216.56
41216.56
41216.56
41216.56
41216.56
41030.67
41030.67
41030.67
41030.67
41030.67
41029.06
41029.06
41029.06
41029.06
41029.06
41211.96
41211.96
41211.96
41211.96
41211.96
41278.44
41278.44
41278.44
41278.44
41278.44
41267.92
41267.92
41267.92
41267.92
41267.92
41154.92
41154.92
41154.92
41154.92
41154.92
40827.04
40827.04
40827.04
40827.04
40827.04
40646.02
40646.02
40646.02
40646.02
40646.02
40590.13
40590.13
40590.13
40590.13
40590.13
40780.17
40780.17
40780.17
40780.17
40780.17
41124.86
41124.86
41124.86
41124.86
41124.86
41246.29
41246.29
41246.29
41246.29
41246.29
41259.46
41259.46
41259.46
41259.46
41259.46
41191.2
41191.2
41191.2
41191.2
41191.2
41002.75
41002.75
41002.75
41002.75
41002.75
41004.12
41004.12
41004.12
41004.12
41004.12
41195.26
41195.26
41195.26
41195.26
41195.26
41266.02
41266.02
41266.02
41266.02
41266.02
41265.7
41265.7
41265.7
41265.7
41265.7
41194.74
41194.74
41194.74
41194.74
41194.74
41005.09
41005.09
41005.09
41005.09
41005.09
41004.85
41004.85
41004.85
41004.85
41004.85
41194.3
41194.3
41194.3
41194.3
41194.3
41265.55
41265.55
41265.55
41265.55
41265.55
41265.62
41265.62
41265.62
41265.62
41265.62
41194.73
41194.73
41194.73
41194.73
41194.73
41005.01
41005.01
41005.01
41005.01
41005.01
41005
41005
41005
41005
41005
41194.79
41194.79
41194.79
41194.79
41194.79
41265.74
41265.74
41265.74
41265.74
41265.74
41265.76
41265.76
41265.76
41265.76
41265.76
41194.85
41194.85
41194.85
41194.85
41194.85
41005.03
41005.03
41005.03
41005.03
41005.03
41004.98
41004.98
41004.98
41004.98
41004.98
41194.71
41194.71
41194.71
41194.71
41194.71
41265.63
41265.63
41265.63
41265.63
41265.63
41265.58
41265.58
41265.58
41265.58
41265.58
41194.36
41194.36
41194.36
41194.36
41194.36
41004.86
41004.86
41004.86
41004.86
41004.86
41005.01
41005.01
41005.01
41005.01
41005.01
41194.65
41194.65
41194.65
41194.65
41194.65
41265.66
41265.66
41265.66
41265.66
41265.66
41266.06
41266.06
41266.06
41266.06
41266.06
41195.35
41195.35
41195.35
41195.35
41195.35
41004.22
41004.22
41004.22
41004.22
41004.22
41002.8
41002.8
41002.8
41002.8
41002.8
41191.21
41191.21
41191.21
41191.21
41191.21
41259.54
41259.54
41259.54
41259.54
41259.54
41246.49
41246.49
41246.49
41246.49
41246.49
41125.22
41125.22
41125.22
41125.22
41125.22
40780.77
40780.77
40780.77
40780.77
40780.77
40590.8
40590.8
40590.8
40590.8
40590.8
40541.86
40541.86
40541.86
40541.86
40541.86
40739.8
40739.8
40739.8
40739.8
40739.8
41098.63
41098.63
41098.63
41098.63
41098.63
41226.96
41226.96
41226.96
41226.96
41226.96
41242.43
41242.43
41242.43
41242.43
41242.43
41173.03
41173.03
41173.03
41173.03
41173.03
40980.6
40980.6
40980.6
40980.6
40980.6
40981.76
40981.76
40981.76
40981.76
40981.76
41176.52
41176.52
41176.52
41176.52
41176.52
41249.84
41249.84
41249.84
41249.84
41249.84
41249.72
41249.72
41249.72
41249.72
41249.72
41176.62
41176.62
41176.62
41176.62
41176.62
40982.93
40982.93
40982.93
40982.93
40982.93
40982.38
40982.38
40982.38
40982.38
40982.38
41175.69
41175.69
41175.69
41175.69
41175.69
41249.23
41249.23
41249.23
41249.23
41249.23
41249.43
41249.43
41249.43
41249.43
41249.43
41176.32
41176.32
41176.32
41176.32
41176.32
40982.29
40982.29
40982.29
40982.29
40982.29
40982.17
40982.17
40982.17
40982.17
40982.17
41175.95
41175.95
41175.95
41175.95
41175.95
41249.23
41249.23
41249.23
41249.23
41249.23
41249.26
41249.26
41249.26
41249.26
41249.26
41176
41176
41176
41176
41176
40982.2
40982.2
40982.2
40982.2
40982.2
40982.24
40982.24
40982.24
40982.24
40982.24
41176.07
41176.07
41176.07
41176.07
41176.07
41249.22
41249.22
41249.22
41249.22
41249.22
41249.26
41249.26
41249.26
41249.26
41249.26
41175.76
41175.76
41175.76
41175.76
41175.76
40982.38
40982.38
40982.38
40982.38
40982.38
40982.7
40982.7
40982.7
40982.7
40982.7
41176.42
41176.42
41176.42
41176.42
41176.42
41249.66
41249.66
41249.66
41249.66
41249.66
41249.85
41249.85
41249.85
41249.85
41249.85
41176.58
41176.58
41176.58
41176.58
41176.58
40981.82
40981.82
40981.82
40981.82
40981.82
40980.6
40980.6
40980.6
40980.6
40980.6
41173.01
41173.01
41173.01
41173.01
41173.01
41242.48
41242.48
41242.48
41242.48
41242.48
41227.12
41227.12
41227.12
41227.12
41227.12
41099.02
41099.02
41099.02
41099.02
41099.02
40740.42
40740.42
40740.42
40740.42
40740.42
40542.43
40542.43
40542.43
40542.43
40542.43
40499.44
40499.44
40499.44
40499.44
40499.44
40704.04
40704.04
40704.04
40704.04
40704.04
41074.49
41074.49
41074.49
41074.49
41074.49
41208.54
41208.54
41208.54
41208.54
41208.54
41225.94
41225.94
41225.94
41225.94
41225.94
41155.78
41155.78
41155.78
41155.78
41155.78
40960.62
40960.62
40960.62
40960.62
40960.62
40961.42
40961.42
40961.42
40961.42
40961.42
41158.94
41158.94
41158.94
41158.94
41158.94
41234.21
41234.21
41234.21
41234.21
41234.21
41234.33
41234.33
41234.33
41234.33
41234.33
41159.6
41159.6
41159.6
41159.6
41159.6
40963.04
40963.04
40963.04
40963.04
40963.04
40962.37
40962.37
40962.37
40962.37
40962.37
41158.85
41158.85
41158.85
41158.85
41158.85
41234.15
41234.15
41234.15
41234.15
41234.15
41234.45
41234.45
41234.45
41234.45
41234.45
41159.85
41159.85
41159.85
41159.85
41159.85
40963.56
40963.56
40963.56
40963.56
40963.56
40962.72
40962.72
40962.72
40962.72
40962.72
41158.72
41158.72
41158.72
41158.72
41158.72
41234.04
41234.04
41234.04
41234.04
41234.04
41234.07
41234.07
41234.07
41234.07
41234.07
41158.77
41158.77
41158.77
41158.77
41158.77
40962.77
40962.77
40962.77
40962.77
40962.77
40963.62
40963.62
40963.62
40963.62
40963.62
41159.85
41159.85
41159.85
41159.85
41159.85
41234.47
41234.47
41234.47
41234.47
41234.47
41234.26
41234.26
41234.26
41234.26
41234.26
41158.94
41158.94
41158.94
41158.94
41158.94
40962.62
40962.62
40962.62
40962.62
40962.62
40963.17
40963.17
40963.17
40963.17
40963.17
41159.68
41159.68
41159.68
41159.68
41159.68
41234.46
41234.46
41234.46
41234.46
41234.46
41234.15
41234.15
41234.15
41234.15
41234.15
41158.91
41158.91
41158.91
41158.91
41158.91
