/*--------------------------------*- C++ -*----------------------------------*\
| =========                 |                                                 |
| \\      /  F ield         | OpenFOAM: The Open Source CFD Toolbox           |
|  \\    /   O peration     | Version:  4.0                                   |
|   \\  /    A nd           | Web:      www.OpenFOAM.org                      |
|    \\/     M anipulation  |                                                 |
\*---------------------------------------------------------------------------*/
FoamFile
{
    version     2.0;
    format      ascii;
    class       volScalarField;
    location    "120/electrolyte";
    object      iLC;
}
// * * * * * * * * * * * * * * * * * * * * * * * * * * * * * * * * * * * * * //

dimensions      [0 -2 0 0 0 1 0];

internalField   nonuniform List<scalar> 
4840
(
40994.19
40994.19
40994.19
40994.19
40994.19
41188.48
41188.48
41188.48
41188.48
41188.48
41399.88
41399.88
41399.88
41399.88
41399.88
41440.12
41440.12
41440.12
41440.12
41440.12
41440.41
41440.41
41440.41
41440.41
41440.41
41411.07
41411.07
41411.07
41411.07
41411.07
41267.38
41267.38
41267.38
41267.38
41267.38
41272.62
41272.62
41272.62
41272.62
41272.62
41412.98
41412.98
41412.98
41412.98
41412.98
41441.19
41441.19
41441.19
41441.19
41441.19
41441.32
41441.32
41441.32
41441.32
41441.32
41412.64
41412.64
41412.64
41412.64
41412.64
41271.35
41271.35
41271.35
41271.35
41271.35
41272.25
41272.25
41272.25
41272.25
41272.25
41412.99
41412.99
41412.99
41412.99
41412.99
41441.56
41441.56
41441.56
41441.56
41441.56
41441.52
41441.52
41441.52
41441.52
41441.52
41412.99
41412.99
41412.99
41412.99
41412.99
41272.11
41272.11
41272.11
41272.11
41272.11
41272.22
41272.22
41272.22
41272.22
41272.22
41413.02
41413.02
41413.02
41413.02
41413.02
41441.52
41441.52
41441.52
41441.52
41441.52
41441.52
41441.52
41441.52
41441.52
41441.52
41413.02
41413.02
41413.02
41413.02
41413.02
41272.19
41272.19
41272.19
41272.19
41272.19
41271.91
41271.91
41271.91
41271.91
41271.91
41412.85
41412.85
41412.85
41412.85
41412.85
41441.4
41441.4
41441.4
41441.4
41441.4
41441.44
41441.44
41441.44
41441.44
41441.44
41412.94
41412.94
41412.94
41412.94
41412.94
41271.72
41271.72
41271.72
41271.72
41271.72
41270.75
41270.75
41270.75
41270.75
41270.75
41412.27
41412.27
41412.27
41412.27
41412.27
41441.04
41441.04
41441.04
41441.04
41441.04
41441.32
41441.32
41441.32
41441.32
41441.32
41413.19
41413.19
41413.19
41413.19
41413.19
41272.99
41272.99
41272.99
41272.99
41272.99
41267.76
41267.76
41267.76
41267.76
41267.76
41411.32
41411.32
41411.32
41411.32
41411.32
41440.9
41440.9
41440.9
41440.9
41440.9
41440.96
41440.96
41440.96
41440.96
41440.96
41401
41401
41401
41401
41401
41190.77
41190.77
41190.77
41190.77
41190.77
40997.53
40997.53
40997.53
40997.53
40997.53
40989.1
40989.1
40989.1
40989.1
40989.1
41168.56
41168.56
41168.56
41168.56
41168.56
41367.29
41367.29
41367.29
41367.29
41367.29
41413.65
41413.65
41413.65
41413.65
41413.65
41413.94
41413.94
41413.94
41413.94
41413.94
41378.17
41378.17
41378.17
41378.17
41378.17
41239.44
41239.44
41239.44
41239.44
41239.44
41243.94
41243.94
41243.94
41243.94
41243.94
41380.3
41380.3
41380.3
41380.3
41380.3
41414.67
41414.67
41414.67
41414.67
41414.67
41414.45
41414.45
41414.45
41414.45
41414.45
41379.31
41379.31
41379.31
41379.31
41379.31
41241.85
41241.85
41241.85
41241.85
41241.85
41242.79
41242.79
41242.79
41242.79
41242.79
41379.73
41379.73
41379.73
41379.73
41379.73
41414.46
41414.46
41414.46
41414.46
41414.46
41414.16
41414.16
41414.16
41414.16
41414.16
41379.26
41379.26
41379.26
41379.26
41379.26
41241.93
41241.93
41241.93
41241.93
41241.93
41242.01
41242.01
41242.01
41242.01
41242.01
41379.28
41379.28
41379.28
41379.28
41379.28
41414.13
41414.13
41414.13
41414.13
41414.13
41414.14
41414.14
41414.14
41414.14
41414.14
41379.29
41379.29
41379.29
41379.29
41379.29
41242.02
41242.02
41242.02
41242.02
41242.02
41241.92
41241.92
41241.92
41241.92
41241.92
41379.48
41379.48
41379.48
41379.48
41379.48
41414.39
41414.39
41414.39
41414.39
41414.39
41414.45
41414.45
41414.45
41414.45
41414.45
41379.69
41379.69
41379.69
41379.69
41379.69
41242.66
41242.66
41242.66
41242.66
41242.66
41241.79
41241.79
41241.79
41241.79
41241.79
41379.28
41379.28
41379.28
41379.28
41379.28
41414.37
41414.37
41414.37
41414.37
41414.37
41414.7
41414.7
41414.7
41414.7
41414.7
41380.39
41380.39
41380.39
41380.39
41380.39
41244.1
41244.1
41244.1
41244.1
41244.1
41239.6
41239.6
41239.6
41239.6
41239.6
41378.28
41378.28
41378.28
41378.28
41378.28
41414.12
41414.12
41414.12
41414.12
41414.12
41413.95
41413.95
41413.95
41413.95
41413.95
41367.69
41367.69
41367.69
41367.69
41367.69
41169.44
41169.44
41169.44
41169.44
41169.44
40990.55
40990.55
40990.55
40990.55
40990.55
40922.12
40922.12
40922.12
40922.12
40922.12
41095.12
41095.12
41095.12
41095.12
41095.12
41325.69
41325.69
41325.69
41325.69
41325.69
41386.1
41386.1
41386.1
41386.1
41386.1
41387.4
41387.4
41387.4
41387.4
41387.4
41342.8
41342.8
41342.8
41342.8
41342.8
41192.46
41192.46
41192.46
41192.46
41192.46
41196.36
41196.36
41196.36
41196.36
41196.36
41345.15
41345.15
41345.15
41345.15
41345.15
41388.49
41388.49
41388.49
41388.49
41388.49
41388.17
41388.17
41388.17
41388.17
41388.17
41344.04
41344.04
41344.04
41344.04
41344.04
41194.76
41194.76
41194.76
41194.76
41194.76
41195.8
41195.8
41195.8
41195.8
41195.8
41344.84
41344.84
41344.84
41344.84
41344.84
41388.56
41388.56
41388.56
41388.56
41388.56
41388.44
41388.44
41388.44
41388.44
41388.44
41344.61
41344.61
41344.61
41344.61
41344.61
41195.31
41195.31
41195.31
41195.31
41195.31
41195.4
41195.4
41195.4
41195.4
41195.4
41344.65
41344.65
41344.65
41344.65
41344.65
41388.51
41388.51
41388.51
41388.51
41388.51
41388.52
41388.52
41388.52
41388.52
41388.52
41344.67
41344.67
41344.67
41344.67
41344.67
41195.42
41195.42
41195.42
41195.42
41195.42
41195.29
41195.29
41195.29
41195.29
41195.29
41344.63
41344.63
41344.63
41344.63
41344.63
41388.47
41388.47
41388.47
41388.47
41388.47
41388.55
41388.55
41388.55
41388.55
41388.55
41344.82
41344.82
41344.82
41344.82
41344.82
41195.72
41195.72
41195.72
41195.72
41195.72
41194.66
41194.66
41194.66
41194.66
41194.66
41343.97
41343.97
41343.97
41343.97
41343.97
41388.13
41388.13
41388.13
41388.13
41388.13
41388.52
41388.52
41388.52
41388.52
41388.52
41345.22
41345.22
41345.22
41345.22
41345.22
41196.48
41196.48
41196.48
41196.48
41196.48
41192.56
41192.56
41192.56
41192.56
41192.56
41342.87
41342.87
41342.87
41342.87
41342.87
41387.52
41387.52
41387.52
41387.52
41387.52
41386.32
41386.32
41386.32
41386.32
41386.32
41326.07
41326.07
41326.07
41326.07
41326.07
41095.89
41095.89
41095.89
41095.89
41095.89
40923.19
40923.19
40923.19
40923.19
40923.19
40838.03
40838.03
40838.03
40838.03
40838.03
41006.98
41006.98
41006.98
41006.98
41006.98
41279.24
41279.24
41279.24
41279.24
41279.24
41358.09
41358.09
41358.09
41358.09
41358.09
41361.26
41361.26
41361.26
41361.26
41361.26
41306.72
41306.72
41306.72
41306.72
41306.72
41144.44
41144.44
41144.44
41144.44
41144.44
41146.58
41146.58
41146.58
41146.58
41146.58
41310.03
41310.03
41310.03
41310.03
41310.03
41363.15
41363.15
41363.15
41363.15
41363.15
41362.63
41362.63
41362.63
41362.63
41362.63
41308.39
41308.39
41308.39
41308.39
41308.39
41145.85
41145.85
41145.85
41145.85
41145.85
41146.27
41146.27
41146.27
41146.27
41146.27
41309.1
41309.1
41309.1
41309.1
41309.1
41362.79
41362.79
41362.79
41362.79
41362.79
41362.64
41362.64
41362.64
41362.64
41362.64
41308.65
41308.65
41308.65
41308.65
41308.65
41145.61
41145.61
41145.61
41145.61
41145.61
41145.62
41145.62
41145.62
41145.62
41145.62
41308.45
41308.45
41308.45
41308.45
41308.45
41362.37
41362.37
41362.37
41362.37
41362.37
41362.38
41362.38
41362.38
41362.38
41362.38
41308.47
41308.47
41308.47
41308.47
41308.47
41145.63
41145.63
41145.63
41145.63
41145.63
41145.56
41145.56
41145.56
41145.56
41145.56
41308.37
41308.37
41308.37
41308.37
41308.37
41362.38
41362.38
41362.38
41362.38
41362.38
41362.77
41362.77
41362.77
41362.77
41362.77
41309.09
41309.09
41309.09
41309.09
41309.09
41146.22
41146.22
41146.22
41146.22
41146.22
41145.64
41145.64
41145.64
41145.64
41145.64
41308.21
41308.21
41308.21
41308.21
41308.21
41362.58
41362.58
41362.58
41362.58
41362.58
41363.17
41363.17
41363.17
41363.17
41363.17
41310.09
41310.09
41310.09
41310.09
41310.09
41146.66
41146.66
41146.66
41146.66
41146.66
41144.49
41144.49
41144.49
41144.49
41144.49
41306.77
41306.77
41306.77
41306.77
41306.77
41361.34
41361.34
41361.34
41361.34
41361.34
41358.27
41358.27
41358.27
41358.27
41358.27
41279.69
41279.69
41279.69
41279.69
41279.69
41007.75
41007.75
41007.75
41007.75
41007.75
40838.83
40838.83
40838.83
40838.83
40838.83
40759.25
40759.25
40759.25
40759.25
40759.25
40933.51
40933.51
40933.51
40933.51
40933.51
41235.65
41235.65
41235.65
41235.65
41235.65
41331.04
41331.04
41331.04
41331.04
41331.04
41336.56
41336.56
41336.56
41336.56
41336.56
41274.95
41274.95
41274.95
41274.95
41274.95
41102.15
41102.15
41102.15
41102.15
41102.15
41103.71
41103.71
41103.71
41103.71
41103.71
41278.78
41278.78
41278.78
41278.78
41278.78
41339.42
41339.42
41339.42
41339.42
41339.42
41338.79
41338.79
41338.79
41338.79
41338.79
41276.95
41276.95
41276.95
41276.95
41276.95
41103.37
41103.37
41103.37
41103.37
41103.37
41103.74
41103.74
41103.74
41103.74
41103.74
41278.06
41278.06
41278.06
41278.06
41278.06
41339.31
41339.31
41339.31
41339.31
41339.31
41339.15
41339.15
41339.15
41339.15
41339.15
41277.63
41277.63
41277.63
41277.63
41277.63
41103.88
41103.88
41103.88
41103.88
41103.88
41104
41104
41104
41104
41104
41277.76
41277.76
41277.76
41277.76
41277.76
41339.19
41339.19
41339.19
41339.19
41339.19
41339.21
41339.21
41339.21
41339.21
41339.21
41277.8
41277.8
41277.8
41277.8
41277.8
41104.03
41104.03
41104.03
41104.03
41104.03
41103.96
41103.96
41103.96
41103.96
41103.96
41277.64
41277.64
41277.64
41277.64
41277.64
41339.18
41339.18
41339.18
41339.18
41339.18
41339.4
41339.4
41339.4
41339.4
41339.4
41278.08
41278.08
41278.08
41278.08
41278.08
41104.06
41104.06
41104.06
41104.06
41104.06
41103.64
41103.64
41103.64
41103.64
41103.64
41277.13
41277.13
41277.13
41277.13
41277.13
41338.98
41338.98
41338.98
41338.98
41338.98
41339.33
41339.33
41339.33
41339.33
41339.33
41278.7
41278.7
41278.7
41278.7
41278.7
41103.58
41103.58
41103.58
41103.58
41103.58
41101.98
41101.98
41101.98
41101.98
41101.98
41274.81
41274.81
41274.81
41274.81
41274.81
41336.26
41336.26
41336.26
41336.26
41336.26
41330.57
41330.57
41330.57
41330.57
41330.57
41235.27
41235.27
41235.27
41235.27
41235.27
40933.09
40933.09
40933.09
40933.09
40933.09
40758.75
40758.75
40758.75
40758.75
40758.75
40686.57
40686.57
40686.57
40686.57
40686.57
40868.4
40868.4
40868.4
40868.4
40868.4
41193.57
41193.57
41193.57
41193.57
41193.57
41304.5
41304.5
41304.5
41304.5
41304.5
41313.45
41313.45
41313.45
41313.45
41313.45
41246.6
41246.6
41246.6
41246.6
41246.6
41065.96
41065.96
41065.96
41065.96
41065.96
41067.32
41067.32
41067.32
41067.32
41067.32
41250.54
41250.54
41250.54
41250.54
41250.54
41317.62
41317.62
41317.62
41317.62
41317.62
41317.28
41317.28
41317.28
41317.28
41317.28
41249.24
41249.24
41249.24
41249.24
41249.24
41067.66
41067.66
41067.66
41067.66
41067.66
41067.93
41067.93
41067.93
41067.93
41067.93
41250
41250
41250
41250
41250
41317.69
41317.69
41317.69
41317.69
41317.69
41317.56
41317.56
41317.56
41317.56
41317.56
41249.79
41249.79
41249.79
41249.79
41249.79
41068.11
41068.11
41068.11
41068.11
41068.11
41068.14
41068.14
41068.14
41068.14
41068.14
41249.87
41249.87
41249.87
41249.87
41249.87
41317.56
41317.56
41317.56
41317.56
41317.56
41317.58
41317.58
41317.58
41317.58
41317.58
41249.91
41249.91
41249.91
41249.91
41249.91
41068.16
41068.16
41068.16
41068.16
41068.16
41068
41068
41068
41068
41068
41249.65
41249.65
41249.65
41249.65
41249.65
41317.45
41317.45
41317.45
41317.45
41317.45
41317.64
41317.64
41317.64
41317.64
41317.64
41250.04
41250.04
41250.04
41250.04
41250.04
41067.78
41067.78
41067.78
41067.78
41067.78
41067.44
41067.44
41067.44
41067.44
41067.44
41249.03
41249.03
41249.03
41249.03
41249.03
41317.13
41317.13
41317.13
41317.13
41317.13
41317.72
41317.72
41317.72
41317.72
41317.72
41250.69
41250.69
41250.69
41250.69
41250.69
41067.51
41067.51
41067.51
41067.51
41067.51
41066.1
41066.1
41066.1
41066.1
41066.1
41246.72
41246.72
41246.72
41246.72
41246.72
41313.76
41313.76
41313.76
41313.76
41313.76
41305.05
41305.05
41305.05
41305.05
41305.05
41194.31
41194.31
41194.31
41194.31
41194.31
40869.46
40869.46
40869.46
40869.46
40869.46
40687.72
40687.72
40687.72
40687.72
40687.72
40623.46
40623.46
40623.46
40623.46
40623.46
40814.51
40814.51
40814.51
40814.51
40814.51
41159.48
41159.48
41159.48
41159.48
41159.48
41281.49
41281.49
41281.49
41281.49
41281.49
41293.31
41293.31
41293.31
41293.31
41293.31
41223.04
41223.04
41223.04
41223.04
41223.04
41035.86
41035.86
41035.86
41035.86
41035.86
41037.17
41037.17
41037.17
41037.17
41037.17
41227.07
41227.07
41227.07
41227.07
41227.07
41298.5
41298.5
41298.5
41298.5
41298.5
41297.98
41297.98
41297.98
41297.98
41297.98
41225.63
41225.63
41225.63
41225.63
41225.63
41037.24
41037.24
41037.24
41037.24
41037.24
41037.45
41037.45
41037.45
41037.45
41037.45
41226.26
41226.26
41226.26
41226.26
41226.26
41298.14
41298.14
41298.14
41298.14
41298.14
41297.84
41297.84
41297.84
41297.84
41297.84
41225.82
41225.82
41225.82
41225.82
41225.82
41037.19
41037.19
41037.19
41037.19
41037.19
41037.17
41037.17
41037.17
41037.17
41037.17
41225.75
41225.75
41225.75
41225.75
41225.75
41297.77
41297.77
41297.77
41297.77
41297.77
41297.79
41297.79
41297.79
41297.79
41297.79
41225.8
41225.8
41225.8
41225.8
41225.8
41037.2
41037.2
41037.2
41037.2
41037.2
41037.16
41037.16
41037.16
41037.16
41037.16
41225.96
41225.96
41225.96
41225.96
41225.96
41298.01
41298.01
41298.01
41298.01
41298.01
41298.16
41298.16
41298.16
41298.16
41298.16
41226.3
41226.3
41226.3
41226.3
41226.3
41037.45
41037.45
41037.45
41037.45
41037.45
41037.27
41037.27
41037.27
41037.27
41037.27
41225.64
41225.64
41225.64
41225.64
41225.64
41297.94
41297.94
41297.94
41297.94
41297.94
41298.54
41298.54
41298.54
41298.54
41298.54
41227.15
41227.15
41227.15
41227.15
41227.15
41037.28
41037.28
41037.28
41037.28
41037.28
41035.92
41035.92
41035.92
41035.92
41035.92
41223.09
41223.09
41223.09
41223.09
41223.09
41293.43
41293.43
41293.43
41293.43
41293.43
41281.73
41281.73
41281.73
41281.73
41281.73
41159.81
41159.81
41159.81
41159.81
41159.81
40815.08
40815.08
40815.08
40815.08
40815.08
40624.21
40624.21
40624.21
40624.21
40624.21
40567.99
40567.99
40567.99
40567.99
40567.99
40767.41
40767.41
40767.41
40767.41
40767.41
41128.59
41128.59
41128.59
41128.59
41128.59
41259.62
41259.62
41259.62
41259.62
41259.62
41274.1
41274.1
41274.1
41274.1
41274.1
41201.62
41201.62
41201.62
41201.62
41201.62
41009.35
41009.35
41009.35
41009.35
41009.35
41010.63
41010.63
41010.63
41010.63
41010.63
41205.62
41205.62
41205.62
41205.62
41205.62
41280.42
41280.42
41280.42
41280.42
41280.42
41279.99
41279.99
41279.99
41279.99
41279.99
41204.66
41204.66
41204.66
41204.66
41204.66
41011.23
41011.23
41011.23
41011.23
41011.23
41011.35
41011.35
41011.35
41011.35
41011.35
41205.08
41205.08
41205.08
41205.08
41205.08
41280.25
41280.25
41280.25
41280.25
41280.25
41280.17
41280.17
41280.17
41280.17
41280.17
41205.1
41205.1
41205.1
41205.1
41205.1
41011.43
41011.43
41011.43
41011.43
41011.43
41011.39
41011.39
41011.39
41011.39
41011.39
41205.01
41205.01
41205.01
41205.01
41205.01
41280.18
41280.18
41280.18
41280.18
41280.18
41280.2
41280.2
41280.2
41280.2
41280.2
41205.06
41205.06
41205.06
41205.06
41205.06
41011.43
41011.43
41011.43
41011.43
41011.43
41011.41
41011.41
41011.41
41011.41
41011.41
41205.08
41205.08
41205.08
41205.08
41205.08
41280.19
41280.19
41280.19
41280.19
41280.19
41280.27
41280.27
41280.27
41280.27
41280.27
41205.12
41205.12
41205.12
41205.12
41205.12
41011.36
41011.36
41011.36
41011.36
41011.36
41011.19
41011.19
41011.19
41011.19
41011.19
41204.61
41204.61
41204.61
41204.61
41204.61
41279.96
41279.96
41279.96
41279.96
41279.96
41280.46
41280.46
41280.46
41280.46
41280.46
41205.71
41205.71
41205.71
41205.71
41205.71
41010.72
41010.72
41010.72
41010.72
41010.72
41009.39
41009.39
41009.39
41009.39
41009.39
41201.65
41201.65
41201.65
41201.65
41201.65
41274.19
41274.19
41274.19
41274.19
41274.19
41259.84
41259.84
41259.84
41259.84
41259.84
41128.96
41128.96
41128.96
41128.96
41128.96
40768.02
40768.02
40768.02
40768.02
40768.02
40568.67
40568.67
40568.67
40568.67
40568.67
40519.85
40519.85
40519.85
40519.85
40519.85
40726.86
40726.86
40726.86
40726.86
40726.86
41101.81
41101.81
41101.81
41101.81
41101.81
41239.91
41239.91
41239.91
41239.91
41239.91
41256.73
41256.73
41256.73
41256.73
41256.73
41182.93
41182.93
41182.93
41182.93
41182.93
40987.01
40987.01
40987.01
40987.01
40987.01
40988.27
40988.27
40988.27
40988.27
40988.27
41186.93
41186.93
41186.93
41186.93
41186.93
41264.2
41264.2
41264.2
41264.2
41264.2
41263.89
41263.89
41263.89
41263.89
41263.89
41186.41
41186.41
41186.41
41186.41
41186.41
40988.86
40988.86
40988.86
40988.86
40988.86
40988.73
40988.73
40988.73
40988.73
40988.73
41186.11
41186.11
41186.11
41186.11
41186.11
41263.73
41263.73
41263.73
41263.73
41263.73
41263.74
41263.74
41263.74
41263.74
41263.74
41186.21
41186.21
41186.21
41186.21
41186.21
40988.49
40988.49
40988.49
40988.49
40988.49
40988.46
40988.46
40988.46
40988.46
40988.46
41186.07
41186.07
41186.07
41186.07
41186.07
41263.53
41263.53
41263.53
41263.53
41263.53
41263.55
41263.55
41263.55
41263.55
41263.55
41186.12
41186.12
41186.12
41186.12
41186.12
40988.48
40988.48
40988.48
40988.48
40988.48
40988.43
40988.43
40988.43
40988.43
40988.43
41185.96
41185.96
41185.96
41185.96
41185.96
41263.52
41263.52
41263.52
41263.52
41263.52
41263.73
41263.73
41263.73
41263.73
41263.73
41186.16
41186.16
41186.16
41186.16
41186.16
40988.75
40988.75
40988.75
40988.75
40988.75
40988.71
40988.71
40988.71
40988.71
40988.71
41186.24
41186.24
41186.24
41186.24
41186.24
41263.85
41263.85
41263.85
41263.85
41263.85
41264.22
41264.22
41264.22
41264.22
41264.22
41186.99
41186.99
41186.99
41186.99
41186.99
40988.34
40988.34
40988.34
40988.34
40988.34
40987.03
40987.03
40987.03
40987.03
40987.03
41182.95
41182.95
41182.95
41182.95
41182.95
41256.8
41256.8
41256.8
41256.8
41256.8
41240.11
41240.11
41240.11
41240.11
41240.11
41102.25
41102.25
41102.25
41102.25
41102.25
40727.5
40727.5
40727.5
40727.5
40727.5
40520.42
40520.42
40520.42
40520.42
40520.42
40477.98
40477.98
40477.98
40477.98
40477.98
40691.23
40691.23
40691.23
40691.23
40691.23
41077.22
41077.22
41077.22
41077.22
41077.22
41221.14
41221.14
41221.14
41221.14
41221.14
41239.93
41239.93
41239.93
41239.93
41239.93
41165.37
41165.37
41165.37
41165.37
41165.37
40966.58
40966.58
40966.58
40966.58
40966.58
40967.8
40967.8
40967.8
40967.8
40967.8
41169.21
41169.21
41169.21
41169.21
41169.21
41248.47
41248.47
41248.47
41248.47
41248.47
41248.3
41248.3
41248.3
41248.3
41248.3
41169.08
41169.08
41169.08
41169.08
41169.08
40968.61
40968.61
40968.61
40968.61
40968.61
40968.53
40968.53
40968.53
40968.53
40968.53
41168.98
41168.98
41168.98
41168.98
41168.98
41248.39
41248.39
41248.39
41248.39
41248.39
41248.47
41248.47
41248.47
41248.47
41248.47
41169.29
41169.29
41169.29
41169.29
41169.29
40968.89
40968.89
40968.89
40968.89
40968.89
40968.91
40968.91
40968.91
40968.91
40968.91
41169.13
41169.13
41169.13
41169.13
41169.13
41248.42
41248.42
41248.42
41248.42
41248.42
41248.44
41248.44
41248.44
41248.44
41248.44
41169.18
41169.18
41169.18
41169.18
41169.18
40968.95
40968.95
40968.95
40968.95
40968.95
40968.95
40968.95
40968.95
40968.95
40968.95
41169.28
41169.28
41169.28
41169.28
41169.28
41248.48
41248.48
41248.48
41248.48
41248.48
41248.48
41248.48
41248.48
41248.48
41248.48
41169.05
41169.05
41169.05
41169.05
41169.05
40968.82
40968.82
40968.82
40968.82
40968.82
40968.83
40968.83
40968.83
40968.83
40968.83
41169.19
41169.19
41169.19
41169.19
41169.19
41248.44
41248.44
41248.44
41248.44
41248.44
